Realdel av fasskift,Tlab [Mev]
46.7766,0.2
55.1955,0.4
59.3608,0.6
61.8882,0.8
63.5881,1
64.8051,1.2
65.7135,1.4
66.412,1.6
66.9608,1.8
67.399,2
67.7533,2.2
68.0423,2.4
68.2796,2.6
68.4754,2.8
68.6372,3
68.7711,3.2
68.8816,3.4
68.9726,3.6
69.0469,3.8
69.1071,4
69.1552,4.2
69.1927,4.4
69.2211,4.6
69.2417,4.8
69.2553,5
69.2628,5.2
69.2649,5.4
69.2623,5.6
69.2556,5.8
69.2451,6
69.2313,6.2
69.2146,6.4
69.1952,6.6
69.1735,6.8
69.1496,7
69.1239,7.2
69.0965,7.4
69.0676,7.6
69.0372,7.8
69.0057,8
68.9731,8.2
68.9394,8.4
68.9049,8.6
68.8696,8.8
68.8335,9
68.7968,9.2
68.7595,9.4
68.7217,9.6
68.6834,9.8
68.6447,10
68.6057,10.2
68.5663,10.4
68.5266,10.6
68.4866,10.8
68.4465,11
68.4061,11.2
68.3655,11.4
68.3249,11.6
68.284,11.8
68.2431,12
68.2021,12.2
68.161,12.4
68.1199,12.6
68.0787,12.8
68.0375,13
67.9963,13.2
67.9551,13.4
67.9138,13.6
67.8726,13.8
67.8315,14
67.7903,14.2
67.7492,14.4
67.7081,14.6
67.6671,14.8
67.6261,15
67.5852,15.2
67.5444,15.4
67.5036,15.6
67.4629,15.8
67.4223,16
67.3817,16.2
67.3413,16.4
67.3009,16.6
67.2606,16.8
67.2204,17
67.1803,17.2
67.1403,17.4
67.1003,17.6
67.0605,17.8
67.0208,18
66.9811,18.2
66.9416,18.4
66.9021,18.6
66.8628,18.8
66.8236,19
66.7844,19.2
66.7454,19.4
66.7064,19.6
66.6676,19.8
66.6288,20
66.5902,20.2
66.5516,20.4
66.5132,20.6
66.4749,20.8
66.4366,21
66.3985,21.2
66.3604,21.4
66.3225,21.6
66.2846,21.8
66.2469,22
66.2092,22.2
66.1717,22.4
66.1342,22.6
66.0968,22.8
66.0596,23
66.0224,23.2
65.9853,23.4
65.9483,23.6
65.9114,23.8
65.8746,24
65.8379,24.2
65.8013,24.4
65.7648,24.6
65.7283,24.8
65.692,25
65.6557,25.2
65.6195,25.4
65.5835,25.6
65.5475,25.8
65.5115,26
65.4757,26.2
65.4399,26.4
65.4043,26.6
65.3687,26.8
65.3332,27
65.2978,27.2
65.2624,27.4
65.2272,27.6
65.192,27.8
65.1569,28
65.1218,28.2
65.0869,28.4
65.052,28.6
65.0172,28.8
64.9825,29
64.9478,29.2
64.9132,29.4
64.8787,29.6
64.8443,29.8
64.8099,30
64.7756,30.2
64.7414,30.4
64.7072,30.6
64.6731,30.8
64.6391,31
64.6051,31.2
64.5712,31.4
64.5374,31.6
64.5036,31.8
64.4699,32
64.4363,32.2
64.4027,32.4
64.3692,32.6
64.3358,32.8
64.3024,33
64.269,33.2
64.2358,33.4
64.2025,33.6
64.1694,33.8
64.1363,34
64.1033,34.2
64.0703,34.4
64.0374,34.6
64.0045,34.8
63.9717,35
63.9389,35.2
63.9062,35.4
63.8735,35.6
63.8409,35.8
63.8084,36
63.7759,36.2
63.7435,36.4
63.7111,36.6
63.6787,36.8
63.6464,37
63.6142,37.2
63.582,37.4
63.5498,37.6
63.5177,37.8
63.4857,38
63.4537,38.2
63.4217,38.4
63.3898,38.6
63.3579,38.8
63.3261,39
63.2943,39.2
63.2626,39.4
63.2309,39.6
63.1992,39.8
63.1676,40
63.136,40.2
63.1045,40.4
63.073,40.6
63.0416,40.8
63.0102,41
62.9788,41.2
62.9475,41.4
62.9162,41.6
62.8849,41.8
62.8537,42
62.8226,42.2
62.7914,42.4
62.7603,42.6
62.7293,42.8
62.6982,43
62.6672,43.2
62.6363,43.4
62.6054,43.6
62.5745,43.8
62.5436,44
62.5128,44.2
62.482,44.4
62.4513,44.6
62.4206,44.8
62.3899,45
62.3592,45.2
62.3286,45.4
62.298,45.6
62.2675,45.8
62.237,46
62.2065,46.2
62.176,46.4
62.1456,46.6
62.1152,46.8
62.0848,47
62.0544,47.2
62.0241,47.4
61.9938,47.6
61.9636,47.8
61.9333,48
61.9031,48.2
61.8729,48.4
61.8428,48.6
61.8127,48.8
61.7826,49
61.7525,49.2
61.7225,49.4
61.6924,49.6
61.6624,49.8
61.6325,50
61.6025,50.2
61.5726,50.4
61.5427,50.6
61.5128,50.8
61.483,51
61.4531,51.2
61.4233,51.4
61.3936,51.6
61.3638,51.8
61.3341,52
61.3044,52.2
61.2747,52.4
61.245,52.6
61.2153,52.8
61.1857,53
61.1561,53.2
61.1265,53.4
61.097,53.6
61.0674,53.8
61.0379,54
61.0084,54.2
60.9789,54.4
60.9494,54.6
60.92,54.8
60.8905,55
60.8611,55.2
60.8317,55.4
60.8024,55.6
60.773,55.8
60.7437,56
60.7144,56.2
60.6851,56.4
60.6558,56.6
60.6265,56.8
60.5973,57
60.568,57.2
60.5388,57.4
60.5096,57.6
60.4804,57.8
60.4512,58
60.4221,58.2
60.3929,58.4
60.3638,58.6
60.3347,58.8
60.3056,59
60.2765,59.2
60.2475,59.4
60.2184,59.6
60.1894,59.8
60.1604,60
60.1314,60.2
60.1024,60.4
60.0734,60.6
60.0444,60.8
60.0155,61
59.9865,61.2
59.9576,61.4
59.9287,61.6
59.8998,61.8
59.8709,62
59.842,62.2
59.8131,62.4
59.7843,62.6
59.7554,62.8
59.7266,63
59.6978,63.2
59.669,63.4
59.6402,63.6
59.6114,63.8
59.5826,64
59.5538,64.2
59.5251,64.4
59.4963,64.6
59.4676,64.8
59.4389,65
59.4102,65.2
59.3815,65.4
59.3528,65.6
59.3241,65.8
59.2954,66
59.2667,66.2
59.2381,66.4
59.2094,66.6
59.1808,66.8
59.1522,67
59.1236,67.2
59.0949,67.4
59.0663,67.6
59.0377,67.8
59.0091,68
58.9806,68.2
58.952,68.4
58.9234,68.6
58.8949,68.8
58.8663,69
58.8378,69.2
58.8092,69.4
58.7807,69.6
58.7522,69.8
58.7237,70
58.6952,70.2
58.6667,70.4
58.6382,70.6
58.6097,70.8
58.5812,71
58.5527,71.2
58.5243,71.4
58.4958,71.6
58.4674,71.8
58.4389,72
58.4105,72.2
58.382,72.4
58.3536,72.6
58.3252,72.8
58.2967,73
58.2683,73.2
58.2399,73.4
58.2115,73.6
58.1831,73.8
58.1547,74
58.1263,74.2
58.0979,74.4
58.0695,74.6
58.0411,74.8
58.0128,75
57.9844,75.2
57.956,75.4
57.9277,75.6
57.8993,75.8
57.8709,76
57.8426,76.2
57.8142,76.4
57.7859,76.6
57.7576,76.8
57.7292,77
57.7009,77.2
57.6726,77.4
57.6442,77.6
57.6159,77.8
57.5876,78
57.5593,78.2
57.5309,78.4
57.5026,78.6
57.4743,78.8
57.446,79
57.4177,79.2
57.3894,79.4
57.3611,79.6
57.3328,79.8
57.3045,80
57.2762,80.2
57.2479,80.4
57.2196,80.6
57.1913,80.8
57.163,81
57.1347,81.2
57.1065,81.4
57.0782,81.6
57.0499,81.8
57.0216,82
56.9933,82.2
56.9651,82.4
56.9368,82.6
56.9085,82.8
56.8802,83
56.852,83.2
56.8237,83.4
56.7954,83.6
56.7671,83.8
56.7389,84
56.7106,84.2
56.6823,84.4
56.6541,84.6
56.6258,84.8
56.5975,85
56.5692,85.2
56.541,85.4
56.5127,85.6
56.4844,85.8
56.4562,86
56.4279,86.2
56.3996,86.4
56.3714,86.6
56.3431,86.8
56.3148,87
56.2866,87.2
56.2583,87.4
56.23,87.6
56.2017,87.8
56.1735,88
56.1452,88.2
56.1169,88.4
56.0887,88.6
56.0604,88.8
56.0321,89
56.0038,89.2
55.9755,89.4
55.9473,89.6
55.919,89.8
55.8907,90
55.8624,90.2
55.8341,90.4
55.8059,90.6
55.7776,90.8
55.7493,91
55.721,91.2
55.6927,91.4
55.6644,91.6
55.6361,91.8
55.6078,92
55.5795,92.2
55.5512,92.4
55.5229,92.6
55.4946,92.8
55.4663,93
55.438,93.2
55.4097,93.4
55.3814,93.6
55.3531,93.8
55.3247,94
55.2964,94.2
55.2681,94.4
55.2398,94.6
55.2115,94.8
55.1831,95
55.1548,95.2
55.1265,95.4
55.0981,95.6
55.0698,95.8
55.0415,96
55.0131,96.2
54.9848,96.4
54.9564,96.6
54.9281,96.8
54.8997,97
54.8714,97.2
54.843,97.4
54.8146,97.6
54.7863,97.8
54.7579,98
54.7295,98.2
54.7011,98.4
54.6728,98.6
54.6444,98.8
54.616,99
54.5876,99.2
54.5592,99.4
54.5308,99.6
54.5024,99.8
54.474,100
54.4456,100.2
54.4172,100.4
54.3888,100.6
54.3604,100.8
54.3319,101
54.3035,101.2
54.2751,101.4
54.2467,101.6
54.2182,101.8
54.1898,102
54.1613,102.2
54.1329,102.4
54.1044,102.6
54.076,102.8
54.0475,103
54.0191,103.2
53.9906,103.4
53.9621,103.6
53.9337,103.8
53.9052,104
53.8767,104.2
53.8482,104.4
53.8197,104.6
53.7912,104.8
53.7627,105
53.7342,105.2
53.7057,105.4
53.6772,105.6
53.6487,105.8
53.6201,106
53.5916,106.2
53.5631,106.4
53.5345,106.6
53.506,106.8
53.4774,107
53.4489,107.2
53.4203,107.4
53.3918,107.6
53.3632,107.8
53.3346,108
53.3061,108.2
53.2775,108.4
53.2489,108.6
53.2203,108.8
53.1917,109
53.1631,109.2
53.1345,109.4
53.1059,109.6
53.0773,109.8
53.0487,110
53.02,110.2
52.9914,110.4
52.9628,110.6
52.9341,110.8
52.9055,111
52.8768,111.2
52.8482,111.4
52.8195,111.6
52.7909,111.8
52.7622,112
52.7335,112.2
52.7048,112.4
52.6761,112.6
52.6474,112.8
52.6187,113
52.59,113.2
52.5613,113.4
52.5326,113.6
52.5039,113.8
52.4752,114
52.4464,114.2
52.4177,114.4
52.389,114.6
52.3602,114.8
52.3315,115
52.3027,115.2
52.2739,115.4
52.2452,115.6
52.2164,115.8
52.1876,116
52.1588,116.2
52.13,116.4
52.1012,116.6
52.0724,116.8
52.0436,117
52.0148,117.2
51.986,117.4
51.9571,117.6
51.9283,117.8
51.8994,118
51.8706,118.2
51.8417,118.4
51.8129,118.6
51.784,118.8
51.7552,119
51.7263,119.2
51.6974,119.4
51.6685,119.6
51.6396,119.8
51.6107,120
51.5818,120.2
51.5529,120.4
51.524,120.6
51.495,120.8
51.4661,121
51.4372,121.2
51.4082,121.4
51.3793,121.6
51.3503,121.8
51.3214,122
51.2924,122.2
51.2634,122.4
51.2344,122.6
51.2054,122.8
51.1764,123
51.1474,123.2
51.1184,123.4
51.0894,123.6
51.0604,123.8
51.0314,124
51.0023,124.2
50.9733,124.4
50.9443,124.6
50.9152,124.8
50.8861,125
50.8571,125.2
50.828,125.4
50.7989,125.6
50.7698,125.8
50.7407,126
50.7117,126.2
50.6825,126.4
50.6534,126.6
50.6243,126.8
50.5952,127
50.5661,127.2
50.5369,127.4
50.5078,127.6
50.4786,127.8
50.4495,128
50.4203,128.2
50.3911,128.4
50.362,128.6
50.3328,128.8
50.3036,129
50.2744,129.2
50.2452,129.4
50.216,129.6
50.1868,129.8
50.1575,130
50.1283,130.2
50.0991,130.4
50.0698,130.6
50.0406,130.8
50.0113,131
49.9821,131.2
49.9528,131.4
49.9235,131.6
49.8942,131.8
49.8649,132
49.8356,132.2
49.8063,132.4
49.777,132.6
49.7477,132.8
49.7184,133
49.689,133.2
49.6597,133.4
49.6303,133.6
49.601,133.8
49.5716,134
49.5423,134.2
49.5129,134.4
49.4835,134.6
49.4541,134.8
49.4247,135
49.3953,135.2
49.3659,135.4
49.3365,135.6
49.3071,135.8
49.2777,136
49.2482,136.2
49.2188,136.4
49.1893,136.6
49.1599,136.8
49.1304,137
49.1009,137.2
49.0715,137.4
49.042,137.6
49.0125,137.8
48.983,138
48.9535,138.2
48.924,138.4
48.8944,138.6
48.8649,138.8
48.8354,139
48.8058,139.2
48.7763,139.4
48.7467,139.6
48.7172,139.8
48.6876,140
48.658,140.2
48.6284,140.4
48.5989,140.6
48.5693,140.8
48.5396,141
48.51,141.2
48.4804,141.4
48.4508,141.6
48.4212,141.8
48.3915,142
48.3619,142.2
48.3322,142.4
48.3026,142.6
48.2729,142.8
48.2432,143
48.2135,143.2
48.1838,143.4
48.1542,143.6
48.1245,143.8
48.0947,144
48.065,144.2
48.0353,144.4
48.0056,144.6
47.9758,144.8
47.9461,145
47.9163,145.2
47.8866,145.4
47.8568,145.6
47.827,145.8
47.7973,146
47.7675,146.2
47.7377,146.4
47.7079,146.6
47.6781,146.8
47.6482,147
47.6184,147.2
47.5886,147.4
47.5588,147.6
47.5289,147.8
47.4991,148
47.4692,148.2
47.4393,148.4
47.4095,148.6
47.3796,148.8
47.3497,149
47.3198,149.2
47.2899,149.4
47.26,149.6
47.2301,149.8
47.2002,150
47.1702,150.2
47.1403,150.4
47.1103,150.6
47.0804,150.8
47.0504,151
47.0205,151.2
46.9905,151.4
46.9605,151.6
46.9305,151.8
46.9006,152
46.8706,152.2
46.8405,152.4
46.8105,152.6
46.7805,152.8
46.7505,153
46.7205,153.2
46.6904,153.4
46.6604,153.6
46.6303,153.8
46.6002,154
46.5702,154.2
46.5401,154.4
46.51,154.6
46.4799,154.8
46.4498,155
46.4197,155.2
46.3896,155.4
46.3595,155.6
46.3294,155.8
46.2992,156
46.2691,156.2
46.239,156.4
46.2088,156.6
46.1786,156.8
46.1485,157
46.1183,157.2
46.0881,157.4
46.0579,157.6
46.0277,157.8
45.9975,158
45.9673,158.2
45.9371,158.4
45.9069,158.6
45.8767,158.8
45.8464,159
45.8162,159.2
45.7859,159.4
45.7557,159.6
45.7254,159.8
45.6951,160
45.6649,160.2
45.6346,160.4
45.6043,160.6
45.574,160.8
45.5437,161
45.5134,161.2
45.4831,161.4
45.4527,161.6
45.4224,161.8
45.3921,162
45.3617,162.2
45.3314,162.4
45.301,162.6
45.2707,162.8
45.2403,163
45.2099,163.2
45.1795,163.4
45.1491,163.6
45.1187,163.8
45.0883,164
45.0579,164.2
45.0275,164.4
44.9971,164.6
44.9666,164.8
44.9362,165
44.9057,165.2
44.8753,165.4
44.8448,165.6
44.8144,165.8
44.7839,166
44.7534,166.2
44.7229,166.4
44.6924,166.6
44.6619,166.8
44.6314,167
44.6009,167.2
44.5704,167.4
44.5399,167.6
44.5094,167.8
44.4788,168
44.4483,168.2
44.4177,168.4
44.3872,168.6
44.3566,168.8
44.326,169
44.2955,169.2
44.2649,169.4
44.2343,169.6
44.2037,169.8
44.1731,170
44.1425,170.2
44.1119,170.4
44.0812,170.6
44.0506,170.8
44.02,171
43.9893,171.2
43.9587,171.4
43.928,171.6
43.8974,171.8
43.8667,172
43.836,172.2
43.8053,172.4
43.7747,172.6
43.744,172.8
43.7133,173
43.6826,173.2
43.6519,173.4
43.6211,173.6
43.5904,173.8
43.5597,174
43.529,174.2
43.4982,174.4
43.4675,174.6
43.4367,174.8
43.4059,175
43.3752,175.2
43.3444,175.4
43.3136,175.6
43.2828,175.8
43.252,176
43.2213,176.2
43.1904,176.4
43.1596,176.6
43.1288,176.8
43.098,177
43.0672,177.2
43.0363,177.4
43.0055,177.6
42.9747,177.8
42.9438,178
42.9129,178.2
42.8821,178.4
42.8512,178.6
42.8203,178.8
42.7895,179
42.7586,179.2
42.7277,179.4
42.6968,179.6
42.6659,179.8
42.635,180
42.604,180.2
42.5731,180.4
42.5422,180.6
42.5112,180.8
42.4803,181
42.4494,181.2
42.4184,181.4
42.3875,181.6
42.3565,181.8
42.3255,182
42.2945,182.2
42.2636,182.4
42.2326,182.6
42.2016,182.8
42.1706,183
42.1396,183.2
42.1086,183.4
42.0776,183.6
42.0465,183.8
42.0155,184
41.9845,184.2
41.9534,184.4
41.9224,184.6
41.8913,184.8
41.8603,185
41.8292,185.2
41.7982,185.4
41.7671,185.6
41.736,185.8
41.7049,186
41.6739,186.2
41.6428,186.4
41.6117,186.6
41.5806,186.8
41.5495,187
41.5183,187.2
41.4872,187.4
41.4561,187.6
41.425,187.8
41.3938,188
41.3627,188.2
41.3315,188.4
41.3004,188.6
41.2692,188.8
41.2381,189
41.2069,189.2
41.1757,189.4
41.1446,189.6
41.1134,189.8
41.0822,190
41.051,190.2
41.0198,190.4
40.9886,190.6
40.9574,190.8
40.9262,191
40.8949,191.2
40.8637,191.4
40.8325,191.6
40.8013,191.8
40.77,192
40.7388,192.2
40.7075,192.4
40.6763,192.6
40.645,192.8
40.6138,193
40.5825,193.2
40.5512,193.4
40.5199,193.6
40.4887,193.8
40.4574,194
40.4261,194.2
40.3948,194.4
40.3635,194.6
40.3322,194.8
40.3009,195
40.2695,195.2
40.2382,195.4
40.2069,195.6
40.1756,195.8
40.1442,196
40.1129,196.2
40.0815,196.4
40.0502,196.6
40.0188,196.8
39.9875,197
39.9561,197.2
39.9248,197.4
39.8934,197.6
39.862,197.8
39.8306,198
39.7992,198.2
39.7678,198.4
39.7365,198.6
39.7051,198.8
39.6737,199
39.6422,199.2
39.6108,199.4
39.5794,199.6
39.548,199.8
39.5166,200
39.4851,200.2
39.4537,200.4
39.4223,200.6
39.3908,200.8
39.3594,201
39.3279,201.2
39.2965,201.4
39.265,201.6
39.2336,201.8
39.2021,202
39.1706,202.2
39.1391,202.4
39.1077,202.6
39.0762,202.8
39.0447,203
39.0132,203.2
38.9817,203.4
38.9502,203.6
38.9187,203.8
38.8872,204
38.8557,204.2
38.8242,204.4
38.7927,204.6
38.7611,204.8
38.7296,205
38.6981,205.2
38.6665,205.4
38.635,205.6
38.6035,205.8
38.5719,206
38.5404,206.2
38.5088,206.4
38.4773,206.6
38.4457,206.8
38.4141,207
38.3826,207.2
38.351,207.4
38.3194,207.6
38.2878,207.8
38.2563,208
38.2247,208.2
38.1931,208.4
38.1615,208.6
38.1299,208.8
38.0983,209
38.0667,209.2
38.0351,209.4
38.0035,209.6
37.9719,209.8
37.9402,210
37.9086,210.2
37.877,210.4
37.8454,210.6
37.8138,210.8
37.7821,211
37.7505,211.2
37.7188,211.4
37.6872,211.6
37.6556,211.8
37.6239,212
37.5923,212.2
37.5606,212.4
37.5289,212.6
37.4973,212.8
37.4656,213
37.434,213.2
37.4023,213.4
37.3706,213.6
37.3389,213.8
37.3073,214
37.2756,214.2
37.2439,214.4
37.2122,214.6
37.1805,214.8
37.1488,215
37.1171,215.2
37.0854,215.4
37.0537,215.6
37.022,215.8
36.9903,216
36.9586,216.2
36.9269,216.4
36.8952,216.6
36.8635,216.8
36.8317,217
36.8,217.2
36.7683,217.4
36.7366,217.6
36.7048,217.8
36.6731,218
36.6414,218.2
36.6096,218.4
36.5779,218.6
36.5462,218.8
36.5144,219
36.4827,219.2
36.4509,219.4
36.4192,219.6
36.3874,219.8
36.3557,220
36.3239,220.2
36.2921,220.4
36.2604,220.6
36.2286,220.8
36.1968,221
36.1651,221.2
36.1333,221.4
36.1015,221.6
36.0698,221.8
36.038,222
36.0062,222.2
35.9744,222.4
35.9426,222.6
35.9109,222.8
35.8791,223
35.8473,223.2
35.8155,223.4
35.7837,223.6
35.7519,223.8
35.7201,224
35.6883,224.2
35.6565,224.4
35.6247,224.6
35.5929,224.8
35.5611,225
35.5293,225.2
35.4975,225.4
35.4657,225.6
35.4339,225.8
35.4021,226
35.3702,226.2
35.3384,226.4
35.3066,226.6
35.2748,226.8
35.243,227
35.2112,227.2
35.1793,227.4
35.1475,227.6
35.1157,227.8
35.0839,228
35.052,228.2
35.0202,228.4
34.9884,228.6
34.9565,228.8
34.9247,229
34.8929,229.2
34.861,229.4
34.8292,229.6
34.7974,229.8
34.7655,230
34.7337,230.2
34.7018,230.4
34.67,230.6
34.6382,230.8
34.6063,231
34.5745,231.2
34.5426,231.4
34.5108,231.6
34.4789,231.8
34.4471,232
34.4152,232.2
34.3834,232.4
34.3515,232.6
34.3197,232.8
34.2878,233
34.256,233.2
34.2241,233.4
34.1923,233.6
34.1604,233.8
34.1286,234
34.0967,234.2
34.0649,234.4
34.033,234.6
34.0011,234.8
33.9693,235
33.9374,235.2
33.9056,235.4
33.8737,235.6
33.8419,235.8
33.81,236
33.7781,236.2
33.7463,236.4
33.7144,236.6
33.6826,236.8
33.6507,237
33.6188,237.2
33.587,237.4
33.5551,237.6
33.5233,237.8
33.4914,238
33.4595,238.2
33.4277,238.4
33.3958,238.6
33.364,238.8
33.3321,239
33.3002,239.2
33.2684,239.4
33.2365,239.6
33.2047,239.8
33.1728,240
33.1409,240.2
33.1091,240.4
33.0772,240.6
33.0454,240.8
33.0135,241
32.9817,241.2
32.9498,241.4
32.9179,241.6
32.8861,241.8
32.8542,242
32.8224,242.2
32.7905,242.4
32.7587,242.6
32.7268,242.8
32.695,243
32.6631,243.2
32.6313,243.4
32.5994,243.6
32.5676,243.8
32.5357,244
32.5039,244.2
32.472,244.4
32.4402,244.6
32.4083,244.8
32.3765,245
32.3446,245.2
32.3128,245.4
32.2809,245.6
32.2491,245.8
32.2173,246
32.1854,246.2
32.1536,246.4
32.1218,246.6
32.0899,246.8
32.0581,247
32.0262,247.2
31.9944,247.4
31.9626,247.6
31.9308,247.8
31.8989,248
31.8671,248.2
31.8353,248.4
31.8034,248.6
31.7716,248.8
31.7398,249
31.708,249.2
31.6762,249.4
31.6444,249.6
31.6125,249.8
31.5807,250
31.5489,250.2
31.5171,250.4
31.4853,250.6
31.4535,250.8
31.4217,251
31.3899,251.2
31.3581,251.4
31.3263,251.6
31.2945,251.8
31.2627,252
31.2309,252.2
31.1991,252.4
31.1673,252.6
31.1355,252.8
31.1037,253
31.0719,253.2
31.0402,253.4
31.0084,253.6
30.9766,253.8
30.9448,254
30.913,254.2
30.8813,254.4
30.8495,254.6
30.8177,254.8
30.786,255
30.7542,255.2
30.7224,255.4
30.6907,255.6
30.6589,255.8
30.6272,256
30.5954,256.2
30.5637,256.4
30.5319,256.6
30.5002,256.8
30.4685,257
30.4367,257.2
30.405,257.4
30.3732,257.6
30.3415,257.8
30.3098,258
30.2781,258.2
30.2463,258.4
30.2146,258.6
30.1829,258.8
30.1512,259
30.1195,259.2
30.0878,259.4
30.0561,259.6
30.0244,259.8
29.9927,260
29.961,260.2
29.9293,260.4
29.8976,260.6
29.8659,260.8
29.8342,261
29.8025,261.2
29.7709,261.4
29.7392,261.6
29.7075,261.8
29.6759,262
29.6442,262.2
29.6125,262.4
29.5809,262.6
29.5492,262.8
29.5176,263
29.4859,263.2
29.4543,263.4
29.4227,263.6
29.391,263.8
29.3594,264
29.3278,264.2
29.2961,264.4
29.2645,264.6
29.2329,264.8
29.2013,265
29.1697,265.2
29.1381,265.4
29.1065,265.6
29.0749,265.8
29.0433,266
29.0117,266.2
28.9801,266.4
28.9485,266.6
28.9169,266.8
28.8854,267
28.8538,267.2
28.8222,267.4
28.7907,267.6
28.7591,267.8
28.7276,268
28.696,268.2
28.6645,268.4
28.6329,268.6
28.6014,268.8
28.5699,269
28.5383,269.2
28.5068,269.4
28.4753,269.6
28.4438,269.8
28.4123,270
28.3808,270.2
28.3493,270.4
28.3178,270.6
28.2863,270.8
28.2548,271
28.2233,271.2
28.1918,271.4
28.1604,271.6
28.1289,271.8
28.0974,272
28.066,272.2
28.0345,272.4
28.0031,272.6
27.9716,272.8
27.9402,273
27.9088,273.2
27.8773,273.4
27.8459,273.6
27.8145,273.8
27.7831,274
27.7517,274.2
27.7203,274.4
27.6889,274.6
27.6575,274.8
27.6261,275
27.5947,275.2
27.5633,275.4
27.532,275.6
27.5006,275.8
27.4692,276
27.4379,276.2
27.4065,276.4
27.3752,276.6
27.3439,276.8
27.3125,277
27.2812,277.2
27.2499,277.4
27.2186,277.6
27.1873,277.8
27.156,278
27.1247,278.2
27.0934,278.4
27.0621,278.6
27.0308,278.8
26.9995,279
26.9683,279.2
26.937,279.4
26.9058,279.6
26.8745,279.8
26.8433,280
26.812,280.2
26.7808,280.4
26.7496,280.6
26.7183,280.8
26.6871,281
26.6559,281.2
26.6247,281.4
26.5935,281.6
26.5623,281.8
26.5312,282
26.5,282.2
26.4688,282.4
26.4377,282.6
26.4065,282.8
26.3754,283
26.3442,283.2
26.3131,283.4
26.282,283.6
26.2508,283.8
26.2197,284
26.1886,284.2
26.1575,284.4
26.1264,284.6
26.0953,284.8
26.0642,285
26.0332,285.2
26.0021,285.4
25.971,285.6
25.94,285.8
25.9089,286
25.8779,286.2
25.8469,286.4
25.8159,286.6
25.7848,286.8
25.7538,287
25.7228,287.2
25.6918,287.4
25.6608,287.6
25.6299,287.8
25.5989,288
25.5679,288.2
25.537,288.4
25.506,288.6
25.4751,288.8
25.4441,289
25.4132,289.2
25.3823,289.4
25.3514,289.6
25.3205,289.8
25.2896,290
25.2587,290.2
25.2278,290.4
25.1969,290.6
25.166,290.8
25.1352,291
25.1043,291.2
25.0735,291.4
25.0427,291.6
25.0118,291.8
24.981,292
24.9502,292.2
24.9194,292.4
24.8886,292.6
24.8578,292.8
24.827,293
24.7963,293.2
24.7655,293.4
24.7347,293.6
24.704,293.8
24.6733,294
24.6425,294.2
24.6118,294.4
24.5811,294.6
24.5504,294.8
24.5197,295
24.489,295.2
24.4583,295.4
24.4277,295.6
24.397,295.8
24.3664,296
24.3357,296.2
24.3051,296.4
24.2744,296.6
24.2438,296.8
24.2132,297
24.1826,297.2
24.152,297.4
24.1215,297.6
24.0909,297.8
24.0603,298
24.0298,298.2
23.9992,298.4
23.9687,298.6
23.9382,298.8
23.9076,299
23.8771,299.2
23.8466,299.4
23.8161,299.6
23.7857,299.8
23.7552,300
23.7247,300.2
23.6943,300.4
23.6638,300.6
23.6334,300.8
23.603,301
23.5726,301.2
23.5421,301.4
23.5117,301.6
23.4814,301.8
23.451,302
23.4206,302.2
23.3903,302.4
23.3599,302.6
23.3296,302.8
23.2993,303
23.2689,303.2
23.2386,303.4
23.2083,303.6
23.178,303.8
23.1478,304
23.1175,304.2
23.0872,304.4
23.057,304.6
23.0268,304.8
22.9965,305
22.9663,305.2
22.9361,305.4
22.9059,305.6
22.8757,305.8
22.8455,306
22.8154,306.2
22.7852,306.4
22.7551,306.6
22.7249,306.8
22.6948,307
22.6647,307.2
22.6346,307.4
22.6045,307.6
22.5744,307.8
22.5444,308
22.5143,308.2
22.4842,308.4
22.4542,308.6
22.4242,308.8
22.3942,309
22.3642,309.2
22.3342,309.4
22.3042,309.6
22.2742,309.8
22.2442,310
22.2143,310.2
22.1843,310.4
22.1544,310.6
22.1245,310.8
22.0946,311
22.0647,311.2
22.0348,311.4
22.0049,311.6
21.9751,311.8
21.9452,312
21.9154,312.2
21.8856,312.4
21.8557,312.6
21.8259,312.8
21.7961,313
21.7664,313.2
21.7366,313.4
21.7068,313.6
21.6771,313.8
21.6474,314
21.6176,314.2
21.5879,314.4
21.5582,314.6
21.5285,314.8
21.4989,315
21.4692,315.2
21.4395,315.4
21.4099,315.6
21.3803,315.8
21.3506,316
21.321,316.2
21.2915,316.4
21.2619,316.6
21.2323,316.8
21.2027,317
21.1732,317.2
21.1437,317.4
21.1142,317.6
21.0846,317.8
21.0552,318
21.0257,318.2
20.9962,318.4
20.9667,318.6
20.9373,318.8
20.9079,319
20.8784,319.2
20.849,319.4
20.8196,319.6
20.7903,319.8
20.7609,320
20.7315,320.2
20.7022,320.4
20.6729,320.6
20.6435,320.8
20.6142,321
20.5849,321.2
20.5557,321.4
20.5264,321.6
20.4971,321.8
20.4679,322
20.4387,322.2
20.4095,322.4
20.3803,322.6
20.3511,322.8
20.3219,323
20.2927,323.2
20.2636,323.4
20.2344,323.6
20.2053,323.8
20.1762,324
20.1471,324.2
20.118,324.4
20.089,324.6
20.0599,324.8
20.0309,325
20.0018,325.2
19.9728,325.4
19.9438,325.6
19.9148,325.8
19.8859,326
19.8569,326.2
19.828,326.4
19.799,326.6
19.7701,326.8
19.7412,327
19.7123,327.2
19.6834,327.4
19.6546,327.6
19.6257,327.8
19.5969,328
19.5681,328.2
19.5393,328.4
19.5105,328.6
19.4817,328.8
19.4529,329
19.4242,329.2
19.3954,329.4
19.3667,329.6
19.338,329.8
19.3093,330
19.2806,330.2
19.252,330.4
19.2233,330.6
19.1947,330.8
19.1661,331
19.1375,331.2
19.1089,331.4
19.0803,331.6
19.0517,331.8
19.0232,332
18.9946,332.2
18.9661,332.4
18.9376,332.6
18.9091,332.8
18.8807,333
18.8522,333.2
18.8237,333.4
18.7953,333.6
18.7669,333.8
18.7385,334
18.7101,334.2
18.6818,334.4
18.6534,334.6
18.6251,334.8
18.5967,335
18.5684,335.2
18.5401,335.4
18.5119,335.6
18.4836,335.8
18.4553,336
18.4271,336.2
18.3989,336.4
18.3707,336.6
18.3425,336.8
18.3143,337
18.2862,337.2
18.258,337.4
18.2299,337.6
18.2018,337.8
18.1737,338
18.1456,338.2
18.1176,338.4
18.0895,338.6
18.0615,338.8
18.0335,339
18.0055,339.2
17.9775,339.4
17.9495,339.6
17.9216,339.8
17.8937,340
17.8657,340.2
17.8378,340.4
17.81,340.6
17.7821,340.8
17.7542,341
17.7264,341.2
17.6986,341.4
17.6708,341.6
17.643,341.8
17.6152,342
17.5874,342.2
17.5597,342.4
17.532,342.6
17.5043,342.8
17.4766,343
17.4489,343.2
17.4213,343.4
17.3936,343.6
17.366,343.8
17.3384,344
17.3108,344.2
17.2832,344.4
17.2557,344.6
17.2281,344.8
17.2006,345
17.1731,345.2
17.1456,345.4
17.1181,345.6
17.0907,345.8
17.0632,346
17.0358,346.2
17.0084,346.4
16.981,346.6
16.9536,346.8
16.9263,347
16.8989,347.2
16.8716,347.4
16.8443,347.6
16.817,347.8
16.7898,348
16.7625,348.2
16.7353,348.4
16.7081,348.6
16.6809,348.8
16.6537,349
16.6265,349.2
16.5994,349.4
16.5723,349.6
16.5451,349.8
16.518,350
